#                                                                     
#                                                                     
# Y88b    /   e           e    e      888~~\    ,88~-_                
#  Y88b  /   d8b         d8b  d8b     888   |  d888   \               
#   Y88b/   /Y88b       d888bdY88b    888 _/  88888    |              
#    Y8Y   /  Y88b     / Y88Y Y888b   888  \  88888    |              
#     Y   /____Y88b   /   YY   Y888b  888   |  Y888   /               
#    /   /      Y88b /          Y888b 888__/    `88_-~                
#                                                                     
#                                                                     
#      Version 5.0.3 Revision 19584 Hash 1cce2ba63                    
#                       Branch is                                     
#           MPI+OpenMP+SLK+SLEPC+HDF5_IO Build                        
#               http://www.yambo-code.org                             
#
#
# Atom 1 with Z 28 [cc]: 0.210328158E-1  0.359024890E-1   5.66934252   
# Atom 1 with Z 17 [cc]: 0.212262236E-1   3.82510161      3.17067671   
# Atom 2 with Z 17 [cc]:  3.30249858      1.93065667      8.16750908   
#
#    Maximum Residual Value = .13009E+00
#   
#    E [ev]             Strength           Index
#
     2.04752755         1.00000000         18.0000000   
     2.02249908        0.945446730         17.0000000   
     2.40967178        0.236001998         60.0000000   
     2.19904971        0.196413532         27.0000000   
     2.41094112        0.194619775         61.0000000   
     2.40197754        0.152185783         58.0000000   
     2.73045683        0.129770949         115.000000   
     2.36241794        0.110537797         50.0000000   
     2.85325098        0.908487067E-1      160.000000   
     2.61787629        0.700475127E-1      83.0000000   
     2.78783011        0.662494078E-1      132.000000   
     2.09005260        0.658631995E-1      20.0000000   
     2.72123361        0.618610233E-1      111.000000   
     2.32428718        0.515444130E-1      43.0000000   
     2.56653786        0.512337647E-1      68.0000000   
     2.72528052        0.490997545E-1      112.000000   
     2.77816153        0.338173285E-1      129.000000   
     2.27804756        0.271597337E-1      38.0000000   
     2.89802361        0.253358912E-1      188.000000   
     2.81797433        0.222358480E-1      142.000000   
     2.53872180        0.199152324E-1      65.0000000   
     2.83014917        0.198027175E-1      149.000000   
     2.58948684        0.190019328E-1      77.0000000   
     2.36736941        0.182197653E-1      51.0000000   
     2.72948170        0.171174053E-1      114.000000   
     2.69590259        0.160955191E-1      106.000000   
     2.81691766        0.141511625E-1      141.000000   
     2.37522054        0.120035391E-1      54.0000000   
     2.84586072        0.104166325E-1      159.000000   
     2.24778867        0.891780667E-2      32.0000000   
     2.56670141        0.783603732E-2      69.0000000   
     2.20904779        0.775174238E-2      29.0000000   
     2.85419941        0.740153249E-2      161.000000   
     2.42537403        0.626927800E-2      62.0000000   
     2.60450745        0.547536835E-2      81.0000000   
     2.65321398        0.498329010E-2      97.0000000   
     2.87427998        0.456969673E-2      172.000000   
     2.86758494        0.454734219E-2      166.000000   
     2.77522540        0.397395901E-2      127.000000   
     2.81346750        0.383605389E-2      140.000000   
     2.42930841        0.299668405E-2      63.0000000   
     2.88835835        0.293233548E-2      180.000000   
     2.86765790        0.275478303E-2      167.000000   
     2.62782836        0.264642644E-2      86.0000000   
     2.88314509        0.249698479E-2      178.000000   
     2.68082500        0.226972112E-2      102.000000   
     2.70506525        0.190013880E-2      109.000000   
     2.86290884        0.134440116E-2      165.000000   
     2.83220577        0.109418062E-2      151.000000   
     2.80620432        0.100657716E-2      138.000000   
     2.58743834        0.639676000E-3      76.0000000   
     2.79133964        0.598138431E-3      134.000000   
     2.86954188        0.549669785E-3      168.000000   
     2.59127831        0.343941647E-3      78.0000000   
     2.75841784        0.340836676E-3      123.000000   
     2.56574941        0.257909938E-3      67.0000000   
     2.64326334        0.201380535E-3      94.0000000   
     2.19826031        0.175901703E-3      26.0000000   
     2.77773452        0.128175379E-3      128.000000   
     2.57114959        0.923343396E-4      71.0000000   
     2.91344881        0.805793898E-4      195.000000   
     2.40570378        0.686344065E-4      59.0000000   
     2.61896515        0.662169186E-4      84.0000000   
     2.27515364        0.639317150E-4      37.0000000   
     2.60400534        0.597773396E-4      80.0000000   
     2.19746804        0.518655397E-4      25.0000000   
     2.87612844        0.477681679E-4      174.000000   
     2.86957788        0.418096861E-4      169.000000   
     2.89527726        0.366429995E-4      186.000000   
     2.71767569        0.307413138E-4      110.000000   
     2.32998967        0.248463057E-4      44.0000000   
     2.89682055        0.216323861E-4      187.000000   
     2.39176440        0.215931068E-4      57.0000000   
     2.74217749        0.189449238E-4      119.000000   
     2.69099116        0.172818218E-4      104.000000   
     2.72673273        0.129585487E-4      113.000000   
     2.20866203        0.123026302E-4      28.0000000   
     2.90118146        0.112510834E-4      190.000000   
     2.82487035        0.774524142E-5      145.000000   
     2.27892542        0.654162159E-5      39.0000000   
     2.10530806        0.648035075E-5      21.0000000   
     2.84360600        0.611627911E-5      157.000000   
     2.91429734        0.600862040E-5      198.000000   
     2.79265881        0.578752451E-5      136.000000   
     2.79147243        0.520657022E-5      135.000000   
     2.37458706        0.482708947E-5      53.0000000   
     2.61464238        0.453598295E-5      82.0000000   
     2.89172506        0.434065259E-5      182.000000   
     2.35939717        0.407088964E-5      49.0000000   
     2.82543468        0.396629957E-5      147.000000   
     2.89860606        0.380104484E-5      189.000000   
     2.07244420        0.368915062E-5      19.0000000   
     2.78535819        0.343210036E-5      130.000000   
     2.24811125        0.292072400E-5      33.0000000   
     2.77365232        0.248396418E-5      126.000000   
     2.64389944        0.212430632E-5      95.0000000   
     2.81966496        0.168629151E-5      143.000000   
     2.44183135        0.166686038E-5      64.0000000   
     2.78933120        0.160358059E-5      133.000000   
     2.64285541        0.153111296E-5      93.0000000   
     2.54868102        0.147931985E-5      66.0000000   
     2.58641839        0.141075577E-5      73.0000000   
     2.74026299        0.140485588E-5      118.000000   
     2.56994438        0.125336862E-5      70.0000000   
     2.26911116        0.121448454E-5      36.0000000   
     2.83469176        0.115316504E-5      153.000000   
     2.87768793        0.107426649E-5      175.000000   
     2.84068370        0.105778668E-5      155.000000   
     2.37266898        0.103057300E-5      52.0000000   
     2.58678460        0.101857074E-5      74.0000000   
     2.76919150        0.100900888E-5      124.000000   
     2.34070563        0.936838092E-6      47.0000000   
     2.78565812        0.862047102E-6      131.000000   
     2.87350249        0.829180578E-6      171.000000   
     2.82841468        0.825989332E-6      148.000000   
     2.73678899        0.811822645E-6      116.000000   
     2.62874031        0.788764680E-6      87.0000000   
     2.91358256        0.782658560E-6      196.000000   
     2.70048642        0.722053642E-6      108.000000   
     2.84345174        0.651465768E-6      156.000000   
     2.84467840        0.476875528E-6      158.000000   
     2.85531402        0.471546940E-6      162.000000   
     2.87224150        0.434516778E-6      170.000000   
     2.83153343        0.406470690E-6      150.000000   
     2.59176755        0.401900792E-6      79.0000000   
     2.15313435        0.380909114E-6      22.0000000   
     2.89110184        0.379223991E-6      181.000000   
     2.33638978        0.367843143E-6      46.0000000   
     2.87590623        0.334490068E-6      173.000000   
     2.83314204        0.323154126E-6      152.000000   
     2.63487411        0.280467873E-6      89.0000000   
     2.77025223        0.266755620E-6      125.000000   
     2.18328238        0.258921176E-6      24.0000000   
     2.80932951        0.245715256E-6      139.000000   
     2.64776874        0.244917999E-6      96.0000000   
     2.90670681        0.235817197E-6      192.000000   
     2.62406230        0.235816429E-6      85.0000000   
     2.74964499        0.222277336E-6      120.000000   
     2.17853880        0.214334264E-6      23.0000000   
     2.73753881        0.197472801E-6      117.000000   
     2.26243186        0.195606830E-6      34.0000000   
     2.34255314        0.170249535E-6      48.0000000   
     2.37891579        0.167241296E-6      55.0000000   
     2.85629225        0.164867600E-6      163.000000   
     2.86033463        0.154209815E-6      164.000000   
     2.88412261        0.147241408E-6      179.000000   
     2.38513899        0.136287014E-6      56.0000000   
     2.83642364        0.123528991E-6      154.000000   
     2.58722711        0.122414306E-6      75.0000000   
     2.82507896        0.113493513E-6      146.000000   
     2.24178934        0.111602546E-6      30.0000000   
     2.90936780        0.987177842E-7      194.000000   
     2.69163036        0.873824177E-7      105.000000   
     2.64009905        0.826819502E-7      92.0000000   
     2.75276089        0.791480304E-7      121.000000   
     2.68952131        0.724657241E-7      103.000000   
     2.63026285        0.675425653E-7      88.0000000   
     2.31041551        0.671412792E-7      40.0000000   
     2.58087349        0.546804522E-7      72.0000000   
     2.88000846        0.530034505E-7      176.000000   
     2.31395912        0.512544318E-7      42.0000000   
     2.79581666        0.501255535E-7      137.000000   
     2.89446378        0.396505051E-7      185.000000   
     2.89281797        0.370217492E-7      184.000000   
    0.449523777        0.361212180E-7      5.00000000   
     2.67410374        0.283675856E-7      101.000000   
     2.67195797        0.279775438E-7      100.000000   
     2.66072273        0.259969450E-7      98.0000000   
     2.82357669        0.247383536E-7      144.000000   
     2.75398302        0.238740565E-7      122.000000   
    0.462079793        0.218524576E-7      6.00000000   
     2.69717813        0.211531557E-7      107.000000   
     2.91377282        0.206359854E-7      197.000000   
     2.67018962        0.182666078E-7      99.0000000   
     2.33351684        0.167195271E-7      45.0000000   
     2.89187980        0.166492402E-7      183.000000   
     2.24264693        0.161409552E-7      31.0000000   
    0.404472113        0.151881618E-7      4.00000000   
    0.692601144        0.147835451E-7      11.0000000   
     2.63821959        0.140767975E-7      91.0000000   
     2.91571212        0.132420768E-7      200.000000   
    0.860855877        0.115129826E-7      15.0000000   
    0.583857596        0.110058318E-7      8.00000000   
     2.63581896        0.900472141E-8      90.0000000   
     2.90721679        0.858296190E-8      193.000000   
    0.619516075        0.668329481E-8      9.00000000   
     2.91456842        0.604384898E-8      199.000000   
    0.630917549        0.548571188E-8      10.0000000   
     2.26504827        0.492989960E-8      35.0000000   
    0.720022321        0.438543246E-8      12.0000000   
   -0.236291245        0.407174783E-8      1.00000000   
    0.810078919        0.341070594E-8      14.0000000   
    0.805942953        0.302555536E-8      13.0000000   
     2.31375313        0.257528621E-8      41.0000000   
   -0.281150341        0.227165264E-8      3.00000000   
   -0.236645535        0.215077156E-8      2.00000000   
     2.90279460        0.202044914E-8      191.000000   
    0.582662404        0.143392742E-8      7.00000000   
    0.92665869         0.88547908E-09      16.000000    
     2.8815832         0.51682697E-09      177.00000    
# 
# 07/24/2023 at 18:33 ypp @ barbun68.yonetim [start]
# 07/24/2023 at 18:33                        [end]
#
# .-Input file  ypp.in
# | BoseTemp= 0.000000         eV    # Bosonic Temperature
# | excitons                         # [R] Excitonic properties
# | States= "0 - 0"                  # Index of the BS state(s)
# | BSQindex= 1                      # Q-Index of the BS state(s)
